* Sea-Bird SBE 9 Data File:
* FileName = C:\Users\CTD-User\Desktop\MAR440\Station 4 210921.hex
* Software Version Seasave V 7.26.2.13
* Temperature SN = 6313
* Conductivity SN = 4758
* Number of Bytes Per Scan = 30
* Number of Voltage Words = 4
* Number of Scans Averaged by the Deck Unit = 1
* System UpLoad Time = Sep 21 2021 11:52:02
* SBE 11plus V 5.1d
* number of scans to average = 1
* pressure baud rate = 9600
* NMEA baud rate = 4800
* GPIB address = 1
* advance primary conductivity  0.073 seconds
* advance secondary conductivity  0.073 seconds
* S>
** Ship:
** Station:
** Operator:
* System UTC = Sep 21 2021 09:52:02
# nquan = 11
# nvalues = 963                         
# units = specified
# name 0 = scan: Scan Count
# name 1 = prDM: Pressure, Digiquartz [db]
# name 2 = t090C: Temperature [ITS-90, deg C]
# name 3 = t190C: Temperature, 2 [ITS-90, deg C]
# name 4 = c0S/m: Conductivity [S/m]
# name 5 = c1S/m: Conductivity, 2 [S/m]
# name 6 = sbeox0V: Oxygen raw, SBE 43 [V]
# name 7 = sbeox1V: Oxygen raw, SBE 43, 2 [V]
# name 8 = flECO-AFL: Fluorescence, WET Labs ECO-AFL/FL [mg/m^3]
# name 9 = upoly0: Upoly 0, Turbidity
# name 10 = flag:  0.000e+00
# span 0 =          1,        963       
# span 1 =      0.481,     10.723       
# span 2 =    11.6141,    15.3196       
# span 3 =    11.6112,    15.1462       
# span 4 =  -0.001126,   2.798481       
# span 5 =   0.025711,   2.805571       
# span 6 =     2.2466,     3.1600       
# span 7 =     2.1734,     2.9280       
# span 8 =     0.0033,     0.0317       
# span 9 =  0.0805824,  0.2378474       
# span 10 = 0.0000e+00, 0.0000e+00      
# interval = seconds: 0.0416667
# start_time = Sep 21 2021 09:52:02 [System UTC, header]
# bad_flag = -9.990e-29
# <Sensors count="13" >
#   <sensor Channel="1" >
#     <!-- Frequency 0, Temperature -->
#     <TemperatureSensor SensorID="55" >
#       <SerialNumber>6313</SerialNumber>
#       <CalibrationDate>09-Mar-18</CalibrationDate>
#       <UseG_J>1</UseG_J>
#       <A>0.00000000e+000</A>
#       <B>0.00000000e+000</B>
#       <C>0.00000000e+000</C>
#       <D>0.00000000e+000</D>
#       <F0_Old>0.000</F0_Old>
#       <G>4.35704303e-003</G>
#       <H>6.37274767e-004</H>
#       <I>2.22763328e-005</I>
#       <J>2.08152216e-006</J>
#       <F0>1000.000</F0>
#       <Slope>1.00000000</Slope>
#       <Offset>0.0000</Offset>
#     </TemperatureSensor>
#   </sensor>
#   <sensor Channel="2" >
#     <!-- Frequency 1, Conductivity -->
#     <ConductivitySensor SensorID="3" >
#       <SerialNumber>4758</SerialNumber>
#       <CalibrationDate>15-Mar-18</CalibrationDate>
#       <UseG_J>1</UseG_J>
#       <!-- Cell const and series R are applicable only for wide range sensors. -->
#       <SeriesR>0.0000</SeriesR>
#       <CellConst>2000.0000</CellConst>
#       <ConductivityType>0</ConductivityType>
#       <Coefficients equation="0" >
#         <A>0.00000000e+000</A>
#         <B>0.00000000e+000</B>
#         <C>0.00000000e+000</C>
#         <D>0.00000000e+000</D>
#         <M>0.0</M>
#         <CPcor>-9.57000000e-008</CPcor>
#       </Coefficients>
#       <Coefficients equation="1" >
#         <G>-1.00074376e+001</G>
#         <H>1.25450981e+000</H>
#         <I>7.09789702e-005</I>
#         <J>4.76788446e-005</J>
#         <CPcor>-9.57000000e-008</CPcor>
#         <CTcor>3.2500e-006</CTcor>
#         <!-- WBOTC not applicable unless ConductivityType = 1. -->
#         <WBOTC>0.00000000e+000</WBOTC>
#       </Coefficients>
#       <Slope>1.00000000</Slope>
#       <Offset>0.00000</Offset>
#     </ConductivitySensor>
#   </sensor>
#   <sensor Channel="3" >
#     <!-- Frequency 2, Pressure, Digiquartz with TC -->
#     <PressureSensor SensorID="45" >
#       <SerialNumber>0469</SerialNumber>
#       <CalibrationDate>15-Oct-10 </CalibrationDate>
#       <C1>-5.103916e+004</C1>
#       <C2>-5.848312e-001</C2>
#       <C3>1.064190e-002</C3>
#       <D1>4.421900e-002</D1>
#       <D2>0.000000e+000</D2>
#       <T1>2.997614e+001</T1>
#       <T2>-4.856324e-004</T2>
#       <T3>3.581030e-006</T3>
#       <T4>3.100110e-009</T4>
#       <Slope>1.00004801</Slope>
#       <Offset>-0.07312</Offset>
#       <T5>0.000000e+000</T5>
#       <AD590M>1.291980e-002</AD590M>
#       <AD590B>-9.336047e+000</AD590B>
#     </PressureSensor>
#   </sensor>
#   <sensor Channel="4" >
#     <!-- Frequency 3, Temperature, 2 -->
#     <TemperatureSensor SensorID="55" >
#       <SerialNumber>6314</SerialNumber>
#       <CalibrationDate>07-Mar-18</CalibrationDate>
#       <UseG_J>1</UseG_J>
#       <A>0.00000000e+000</A>
#       <B>0.00000000e+000</B>
#       <C>0.00000000e+000</C>
#       <D>0.00000000e+000</D>
#       <F0_Old>0.000</F0_Old>
#       <G>4.39394373e-003</G>
#       <H>6.43851423e-004</H>
#       <I>2.33768335e-005</I>
#       <J>2.18520633e-006</J>
#       <F0>1000.000</F0>
#       <Slope>1.00000000</Slope>
#       <Offset>0.0000</Offset>
#     </TemperatureSensor>
#   </sensor>
#   <sensor Channel="5" >
#     <!-- Frequency 4, Conductivity, 2 -->
#     <ConductivitySensor SensorID="3" >
#       <SerialNumber>4759</SerialNumber>
#       <CalibrationDate>15-Mar-18</CalibrationDate>
#       <UseG_J>1</UseG_J>
#       <!-- Cell const and series R are applicable only for wide range sensors. -->
#       <SeriesR>0.0000</SeriesR>
#       <CellConst>2000.0000</CellConst>
#       <ConductivityType>0</ConductivityType>
#       <Coefficients equation="0" >
#         <A>0.00000000e+000</A>
#         <B>0.00000000e+000</B>
#         <C>0.00000000e+000</C>
#         <D>0.00000000e+000</D>
#         <M>0.0</M>
#         <CPcor>-9.57000000e-008</CPcor>
#       </Coefficients>
#       <Coefficients equation="1" >
#         <G>-9.92655810e+000</G>
#         <H>1.22836953e+000</H>
#         <I>7.27705124e-005</I>
#         <J>4.43760579e-005</J>
#         <CPcor>-9.57000000e-008</CPcor>
#         <CTcor>3.2500e-006</CTcor>
#         <!-- WBOTC not applicable unless ConductivityType = 1. -->
#         <WBOTC>0.00000000e+000</WBOTC>
#       </Coefficients>
#       <Slope>1.00000000</Slope>
#       <Offset>0.00000</Offset>
#     </ConductivitySensor>
#   </sensor>
#   <sensor Channel="6" >
#     <!-- A/D voltage 0, Oxygen, SBE 43 -->
#     <OxygenSensor SensorID="38" >
#       <SerialNumber>3671</SerialNumber>
#       <CalibrationDate>04-Apr-18</CalibrationDate>
#       <Use2007Equation>1</Use2007Equation>
#       <CalibrationCoefficients equation="0" >
#         <!-- Coefficients for Owens-Millard equation. -->
#         <Boc>0.0000</Boc>
#         <Soc>0.0000e+000</Soc>
#         <offset>0.0000</offset>
#         <Pcor>0.00e+000</Pcor>
#         <Tcor>0.0000</Tcor>
#         <Tau>0.0</Tau>
#       </CalibrationCoefficients>
#       <CalibrationCoefficients equation="1" >
#         <!-- Coefficients for Sea-Bird equation - SBE calibration in 2007 and later. -->
#         <Soc>4.9827e-001</Soc>
#         <offset>-0.5141</offset>
#         <A>-3.6016e-003</A>
#         <B> 1.6280e-004</B>
#         <C>-2.4237e-006</C>
#         <D0> 2.5826e+000</D0>
#         <D1> 1.92634e-004</D1>
#         <D2>-4.64803e-002</D2>
#         <E> 3.6000e-002</E>
#         <Tau20> 1.4900</Tau20>
#         <H1>-3.3000e-002</H1>
#         <H2> 5.0000e+003</H2>
#         <H3> 1.4500e+003</H3>
#       </CalibrationCoefficients>
#     </OxygenSensor>
#   </sensor>
#   <sensor Channel="7" >
#     <!-- A/D voltage 1, Free -->
#   </sensor>
#   <sensor Channel="8" >
#     <!-- A/D voltage 2, Oxygen, SBE 43, 2 -->
#     <OxygenSensor SensorID="38" >
#       <SerialNumber>3752</SerialNumber>
#       <CalibrationDate>02-Nov-18</CalibrationDate>
#       <Use2007Equation>1</Use2007Equation>
#       <CalibrationCoefficients equation="0" >
#         <!-- Coefficients for Owens-Millard equation. -->
#         <Boc>0.0000</Boc>
#         <Soc>0.0000e+000</Soc>
#         <offset>0.0000</offset>
#         <Pcor>0.00e+000</Pcor>
#         <Tcor>0.0000</Tcor>
#         <Tau>0.0</Tau>
#       </CalibrationCoefficients>
#       <CalibrationCoefficients equation="1" >
#         <!-- Coefficients for Sea-Bird equation - SBE calibration in 2007 and later. -->
#         <Soc>4.2712e-001</Soc>
#         <offset>-0.4717</offset>
#         <A>-3.9718e-003</A>
#         <B> 1.9806e-004</B>
#         <C>-2.8024e-006</C>
#         <D0> 2.5826e+000</D0>
#         <D1> 1.92634e-004</D1>
#         <D2>-4.64803e-002</D2>
#         <E> 3.6000e-002</E>
#         <Tau20> 1.3800</Tau20>
#         <H1>-3.3000e-002</H1>
#         <H2> 5.0000e+003</H2>
#         <H3> 1.4500e+003</H3>
#       </CalibrationCoefficients>
#     </OxygenSensor>
#   </sensor>
#   <sensor Channel="9" >
#     <!-- A/D voltage 3, Free -->
#   </sensor>
#   <sensor Channel="10" >
#     <!-- A/D voltage 4, User Polynomial -->
#     <UserPolynomialSensor SensorID="61" >
#       <SerialNumber>FLNTURT-5033</SerialNumber>
#       <CalibrationDate>3/8/18</CalibrationDate>
#       <SensorName>Turbidity</SensorName>
#       <A0>0.06300000</A0>
#       <A1>0.40000000</A1>
#       <A2>0.00000000</A2>
#       <A3>0.00000000</A3>
#     </UserPolynomialSensor>
#   </sensor>
#   <sensor Channel="11" >
#     <!-- A/D voltage 5, Fluorometer, WET Labs ECO-AFL/FL -->
#     <FluoroWetlabECO_AFL_FL_Sensor SensorID="20" >
#       <SerialNumber>FLNTURT-5033</SerialNumber>
#       <CalibrationDate>3/8/18</CalibrationDate>
#       <ScaleFactor>1.50000000e-001</ScaleFactor>
#       <!-- Dark output -->
#       <Vblank>0.0440</Vblank>
#     </FluoroWetlabECO_AFL_FL_Sensor>
#   </sensor>
#   <sensor Channel="12" >
#     <!-- A/D voltage 6, Altimeter -->
#     <AltimeterSensor SensorID="0" >
#       <SerialNumber>74132</SerialNumber>
#       <CalibrationDate></CalibrationDate>
#       <ScaleFactor>15.000</ScaleFactor>
#       <Offset>0.000</Offset>
#     </AltimeterSensor>
#   </sensor>
#   <sensor Channel="13" >
#     <!-- A/D voltage 7, Free -->
#   </sensor>
# </Sensors>
# datcnv_date = Sep 23 2021 14:31:15, 7.26.2.14 [datcnv_vars = 10]
# datcnv_in = C:\Users\CTD-User\Desktop\MAR440\day1\Station 4 210921.hex C:\Program Files (x86)\Sea-Bird\SeasaveV7\calib\0469_210817.xmlcon
# datcnv_skipover = 0
# datcnv_ox_hysteresis_correction = yes
# celltm_date = Sep 23 2021 15:15:35, 7.26.2.14
# celltm_in = C:\Users\CTD-User\Desktop\MAR440\day1\Station 4 210921.cnv
# celltm_alpha = 0.0400, 0.0400
# celltm_tau = 8.0000, 8.0000
# celltm_temp_sensor_use_for_cond = primary, secondary
# file_type = ascii
*END*
          1      0.629    11.7120    11.7051  -0.000203   0.026349     2.9377     2.8596     0.0035  0.0815592 0.0000e+00
          2      0.596    11.7120    11.7052   0.000468   0.027367     2.9365     2.8596     0.0035  0.0815592 0.0000e+00
          3      0.571    11.7114    11.7054   0.000502   0.027020     2.9365     2.8596     0.0033  0.0815592 0.0000e+00
          4      0.596    11.7094    11.7056  -0.000575   0.026517     2.9365     2.8596     0.0035  0.0810708 0.0000e+00
          5      0.571    11.7092    11.7054  -0.000155   0.026519     2.9377     2.8596     0.0035  0.0810708 0.0000e+00
          6      0.538    11.7092    11.7044  -0.000262   0.026946     2.9365     2.8596     0.0035  0.0815592 0.0000e+00
          7      0.571    11.7084    11.7036  -0.000382   0.026606     2.9365     2.8596     0.0035  0.0810708 0.0000e+00
          8      0.596    11.7064    11.7028   0.000059   0.026445     2.9365     2.8596     0.0035  0.0810708 0.0000e+00
          9      0.571    11.7051    11.7029  -0.000184   0.026668     2.9365     2.8596     0.0033  0.0815592 0.0000e+00
         10      0.596    11.7044    11.7037  -0.000195   0.026740     2.9365     2.8596     0.0035  0.0810708 0.0000e+00
         11      0.571    11.7038    11.7039   0.000180   0.026589     2.9365     2.8596     0.0033  0.0815592 0.0000e+00
         12      0.538    11.7024    11.7037  -0.000261   0.026640     2.9377     2.8596     0.0033  0.0815592 0.0000e+00
         13      0.571    11.7024    11.7037  -0.000116   0.026828     2.9377     2.8596     0.0033  0.0815592 0.0000e+00
         14      0.538    11.7024    11.7034   0.000244   0.026664     2.9365     2.8596     0.0033  0.0815592 0.0000e+00
         15      0.629    11.7019    11.7036  -0.000242   0.026413     2.9365     2.8596     0.0033  0.0815592 0.0000e+00
         16      0.596    11.7012    11.7036   0.000041   0.026494     2.9365     2.8596     0.0033  0.0815592 0.0000e+00
         17      0.571    11.7006    11.7041   0.000152   0.026828     2.9365     2.8596     0.0035  0.0815592 0.0000e+00
         18      0.596    11.6993    11.7039  -0.000379   0.026804     2.9365     2.8596     0.0033  0.0815592 0.0000e+00
         19      0.505    11.6986    11.7041  -0.000213   0.026592     2.9365     2.8596     0.0033  0.0815592 0.0000e+00
         20      0.596    11.6976    11.7039  -0.000124   0.026575     2.9377     2.8596     0.0033  0.0815592 0.0000e+00
         21      0.571    11.6975    11.7032  -0.000424   0.026965     2.9365     2.8596     0.0033  0.0815592 0.0000e+00
         22      0.538    11.6965    11.7026   0.000099   0.026465     2.9365     2.8596     0.0033  0.0815592 0.0000e+00
         23      0.629    11.6953    11.7023   0.000017   0.026325     2.9377     2.8596     0.0033  0.0815592 0.0000e+00
         24      0.538    11.6946    11.7016  -0.000312   0.027277     2.9377     2.8596     0.0035  0.0810708 0.0000e+00
         25      0.629    11.6942    11.7006   0.000232   0.027003     2.9365     2.8596     0.0035  0.0810708 0.0000e+00
         26      0.538    11.6932    11.6997   0.000118   0.027242     2.9365     2.8596     0.0035  0.0810708 0.0000e+00
         27      0.571    11.6921    11.6986  -0.000409   0.026065     2.9365     2.8596     0.0035  0.0810708 0.0000e+00
         28      0.538    11.6909    11.6974   0.000224   0.026227     2.9377     2.8596     0.0035  0.0810708 0.0000e+00
         29      0.629    11.6904    11.6958   0.000205   0.026727     2.9365     2.8596     0.0035  0.0805824 0.0000e+00
         30      0.538    11.6889    11.6948  -0.000351   0.026615     2.9365     2.8596     0.0035  0.0810708 0.0000e+00
         31      0.629    11.6868    11.6936   0.000110   0.026114     2.9377     2.8596     0.0033  0.0805824 0.0000e+00
         32      0.538    11.6846    11.6924   0.000016   0.026803     2.9377     2.8596     0.0035  0.0810708 0.0000e+00
         33      0.571    11.6823    11.6914  -0.000463   0.026916     2.9365     2.8596     0.0035  0.0805824 0.0000e+00
         34      0.596    11.6800    11.6903  -0.000018   0.027045     2.9365     2.8596     0.0035  0.0810708 0.0000e+00
         35      0.571    11.6783    11.6890  -0.000175   0.027178     2.9365     2.8596     0.0033  0.0810708 0.0000e+00
         36      0.538    11.6774    11.6874  -0.000413   0.026385     2.9365     2.8596     0.0033  0.0810708 0.0000e+00
         37      0.571    11.6761    11.6860   0.000188   0.027035     2.9365     2.8596     0.0033  0.0810708 0.0000e+00
         38      0.538    11.6760    11.6853  -0.000331   0.025973     2.9365     2.8596     0.0033  0.0810708 0.0000e+00
         39      0.571    11.6758    11.6844  -0.000370   0.026451     2.9365     2.8596     0.0035  0.0810708 0.0000e+00
         40      0.538    11.6750    11.6831   0.000211   0.026740     2.9365     2.8596     0.0033  0.0810708 0.0000e+00
         41      0.506    11.6737    11.6818  -0.000388   0.026243     2.9377     2.8596     0.0033  0.0805824 0.0000e+00
         42      0.596    11.6722    11.6806  -0.000277   0.026773     2.9365     2.8596     0.0035  0.0805824 0.0000e+00
         43      0.571    11.6702    11.6799   0.000176   0.026680     2.9365     2.8596     0.0033  0.0810708 0.0000e+00
         44      0.596    11.6686    11.6786  -0.000322   0.026224     2.9365     2.8596     0.0033  0.0810708 0.0000e+00
         45      0.572    11.6673    11.6771  -0.000226   0.027051     2.9365     2.8596     0.0035  0.0810708 0.0000e+00
         46      0.539    11.6656    11.6758  -0.000008   0.026812     2.9365     2.8596     0.0033  0.0810708 0.0000e+00
         47      0.572    11.6637    11.6743  -0.000349   0.025903     2.9365     2.8596     0.0035  0.0810708 0.0000e+00
         48      0.539    11.6632    11.6719  -0.000129   0.027033     2.9377     2.8596     0.0035  0.0805824 0.0000e+00
         49      0.506    11.6630    11.6695   0.000256   0.026262     2.9365     2.8596     0.0033  0.0810708 0.0000e+00
         50      0.662    11.6617    11.6668  -0.000728   0.026376     2.9365     2.8596     0.0035  0.0810708 0.0000e+00
         51      0.572    11.6602    11.6643  -0.000171   0.026616     2.9365     2.8596     0.0035  0.0810708 0.0000e+00
         52      0.596    11.6591    11.6628  -0.000110   0.026191     2.9365     2.8596     0.0033  0.0815592 0.0000e+00
         53      0.629    11.6584    11.6615  -0.000619   0.026906     2.9377     2.8596     0.0035  0.0815592 0.0000e+00
         54      0.539    11.6577    11.6596   0.000130   0.026748     2.9365     2.8596     0.0033  0.0815592 0.0000e+00
         55      0.506    11.6577    11.6568  -0.000069   0.027028     2.9365     2.8596     0.0033  0.0815592 0.0000e+00
         56      0.596    11.6579    11.6528  -0.000491   0.026339     2.9365     2.8596     0.0033  0.0815592 0.0000e+00
         57      0.572    11.6577    11.6488   0.000002   0.025991     2.9365     2.8596     0.0035  0.0810708 0.0000e+00
         58      0.596    11.6573    11.6460  -0.000168   0.026188     2.9365     2.8596     0.0033  0.0815592 0.0000e+00
         59      0.572    11.6555    11.6452  -0.000585   0.026289     2.9365     2.8596     0.0033  0.0815592 0.0000e+00
         60      0.596    11.6531    11.6448   0.000065   0.026352     2.9377     2.8596     0.0033  0.0815592 0.0000e+00
         61      0.572    11.6508    11.6438  -0.000047   0.026997     2.9377     2.8596     0.0033  0.0815592 0.0000e+00
         62      0.539    11.6489    11.6425  -0.000344   0.026431     2.9365     2.8596     0.0035  0.0810708 0.0000e+00
         63      0.506    11.6483    11.6410   0.000022   0.026051     2.9365     2.8596     0.0033  0.0815592 0.0000e+00
         64      0.539    11.6469    11.6390  -0.000223   0.025839     2.9365     2.8596     0.0033  0.0815592 0.0000e+00
         65      0.572    11.6458    11.6368  -0.000597   0.026604     2.9377     2.8596     0.0035  0.0815592 0.0000e+00
         66      0.662    11.6443    11.6354  -0.000055   0.026802     2.9377     2.8596     0.0033  0.0815592 0.0000e+00
         67      0.572    11.6420    11.6352  -0.000177   0.026384     2.9365     2.8596     0.0035  0.0810708 0.0000e+00
         68      0.597    11.6403    11.6348  -0.000248   0.026708     2.9365     2.8596     0.0033  0.0815592 0.0000e+00
         69      0.572    11.6400    11.6337   0.000045   0.026215     2.9365     2.8596     0.0035  0.0810708 0.0000e+00
         70      0.481    11.6397    11.6325  -0.000520   0.026605     2.9377     2.8596     0.0035  0.0815592 0.0000e+00
         71      0.572    11.6396    11.6310  -0.000350   0.026457     2.9365     2.8596     0.0033  0.0815592 0.0000e+00
         72      0.539    11.6402    11.6289  -0.000109   0.025853     2.9365     2.8596     0.0035  0.0815592 0.0000e+00
         73      0.572    11.6403    11.6266  -0.000619   0.026674     2.9365     2.8596     0.0035  0.0815592 0.0000e+00
         74      0.663    11.6399    11.6250  -0.000141   0.025907     2.9365     2.8596     0.0033  0.0815592 0.0000e+00
         75      0.572    11.6380    11.6246   0.000166   0.027144     2.9377     2.8596     0.0035  0.0815592 0.0000e+00
