* Sea-Bird SBE 9 Data File:
* FileName = C:\Users\CTD-User\Desktop\MAR440\Station 4 210921.hex
* Software Version Seasave V 7.26.2.13
* Temperature SN = 6313
* Conductivity SN = 4758
* Number of Bytes Per Scan = 30
* Number of Voltage Words = 4
* Number of Scans Averaged by the Deck Unit = 1
* System UpLoad Time = Sep 21 2021 11:52:02
* SBE 11plus V 5.1d
* number of scans to average = 1
* pressure baud rate = 9600
* NMEA baud rate = 4800
* GPIB address = 1
* advance primary conductivity  0.073 seconds
* advance secondary conductivity  0.073 seconds
* S>
** Ship:
** Station:
** Operator:
* System UTC = Sep 21 2021 09:52:02
# nquan = 11
# nvalues = 963                         
# units = specified
# name 0 = scan: Scan Count
# name 1 = prDM: Pressure, Digiquartz [db]
# name 2 = t090C: Temperature [ITS-90, deg C]
# name 3 = t190C: Temperature, 2 [ITS-90, deg C]
# name 4 = c0S/m: Conductivity [S/m]
# name 5 = c1S/m: Conductivity, 2 [S/m]
# name 6 = sbeox0V: Oxygen raw, SBE 43 [V]
# name 7 = sbeox1V: Oxygen raw, SBE 43, 2 [V]
# name 8 = flECO-AFL: Fluorescence, WET Labs ECO-AFL/FL [mg/m^3]
# name 9 = upoly0: Upoly 0, Turbidity
# name 10 = flag:  0.000e+00
# span 0 =          1,        963       
# span 1 =      0.567,     10.540       
# span 2 =    11.6500,    15.2378       
# span 3 =    11.6440,    15.0610       
# span 4 =  -0.000120,   2.791269       
# span 5 =   0.026556,   2.797579       
# span 6 =     2.2470,     3.1434       
# span 7 =     2.1801,     2.9063       
# span 8 =     0.0033,     0.0317       
# span 9 =  0.0811493,  0.2341219       
# span 10 = 0.0000e+00, 0.0000e+00      
# interval = seconds: 0.0416667
# start_time = Sep 21 2021 09:52:02 [System UTC, header]
# bad_flag = -9.990e-29
# <Sensors count="13" >
#   <sensor Channel="1" >
#     <!-- Frequency 0, Temperature -->
#     <TemperatureSensor SensorID="55" >
#       <SerialNumber>6313</SerialNumber>
#       <CalibrationDate>09-Mar-18</CalibrationDate>
#       <UseG_J>1</UseG_J>
#       <A>0.00000000e+000</A>
#       <B>0.00000000e+000</B>
#       <C>0.00000000e+000</C>
#       <D>0.00000000e+000</D>
#       <F0_Old>0.000</F0_Old>
#       <G>4.35704303e-003</G>
#       <H>6.37274767e-004</H>
#       <I>2.22763328e-005</I>
#       <J>2.08152216e-006</J>
#       <F0>1000.000</F0>
#       <Slope>1.00000000</Slope>
#       <Offset>0.0000</Offset>
#     </TemperatureSensor>
#   </sensor>
#   <sensor Channel="2" >
#     <!-- Frequency 1, Conductivity -->
#     <ConductivitySensor SensorID="3" >
#       <SerialNumber>4758</SerialNumber>
#       <CalibrationDate>15-Mar-18</CalibrationDate>
#       <UseG_J>1</UseG_J>
#       <!-- Cell const and series R are applicable only for wide range sensors. -->
#       <SeriesR>0.0000</SeriesR>
#       <CellConst>2000.0000</CellConst>
#       <ConductivityType>0</ConductivityType>
#       <Coefficients equation="0" >
#         <A>0.00000000e+000</A>
#         <B>0.00000000e+000</B>
#         <C>0.00000000e+000</C>
#         <D>0.00000000e+000</D>
#         <M>0.0</M>
#         <CPcor>-9.57000000e-008</CPcor>
#       </Coefficients>
#       <Coefficients equation="1" >
#         <G>-1.00074376e+001</G>
#         <H>1.25450981e+000</H>
#         <I>7.09789702e-005</I>
#         <J>4.76788446e-005</J>
#         <CPcor>-9.57000000e-008</CPcor>
#         <CTcor>3.2500e-006</CTcor>
#         <!-- WBOTC not applicable unless ConductivityType = 1. -->
#         <WBOTC>0.00000000e+000</WBOTC>
#       </Coefficients>
#       <Slope>1.00000000</Slope>
#       <Offset>0.00000</Offset>
#     </ConductivitySensor>
#   </sensor>
#   <sensor Channel="3" >
#     <!-- Frequency 2, Pressure, Digiquartz with TC -->
#     <PressureSensor SensorID="45" >
#       <SerialNumber>0469</SerialNumber>
#       <CalibrationDate>15-Oct-10 </CalibrationDate>
#       <C1>-5.103916e+004</C1>
#       <C2>-5.848312e-001</C2>
#       <C3>1.064190e-002</C3>
#       <D1>4.421900e-002</D1>
#       <D2>0.000000e+000</D2>
#       <T1>2.997614e+001</T1>
#       <T2>-4.856324e-004</T2>
#       <T3>3.581030e-006</T3>
#       <T4>3.100110e-009</T4>
#       <Slope>1.00004801</Slope>
#       <Offset>-0.07312</Offset>
#       <T5>0.000000e+000</T5>
#       <AD590M>1.291980e-002</AD590M>
#       <AD590B>-9.336047e+000</AD590B>
#     </PressureSensor>
#   </sensor>
#   <sensor Channel="4" >
#     <!-- Frequency 3, Temperature, 2 -->
#     <TemperatureSensor SensorID="55" >
#       <SerialNumber>6314</SerialNumber>
#       <CalibrationDate>07-Mar-18</CalibrationDate>
#       <UseG_J>1</UseG_J>
#       <A>0.00000000e+000</A>
#       <B>0.00000000e+000</B>
#       <C>0.00000000e+000</C>
#       <D>0.00000000e+000</D>
#       <F0_Old>0.000</F0_Old>
#       <G>4.39394373e-003</G>
#       <H>6.43851423e-004</H>
#       <I>2.33768335e-005</I>
#       <J>2.18520633e-006</J>
#       <F0>1000.000</F0>
#       <Slope>1.00000000</Slope>
#       <Offset>0.0000</Offset>
#     </TemperatureSensor>
#   </sensor>
#   <sensor Channel="5" >
#     <!-- Frequency 4, Conductivity, 2 -->
#     <ConductivitySensor SensorID="3" >
#       <SerialNumber>4759</SerialNumber>
#       <CalibrationDate>15-Mar-18</CalibrationDate>
#       <UseG_J>1</UseG_J>
#       <!-- Cell const and series R are applicable only for wide range sensors. -->
#       <SeriesR>0.0000</SeriesR>
#       <CellConst>2000.0000</CellConst>
#       <ConductivityType>0</ConductivityType>
#       <Coefficients equation="0" >
#         <A>0.00000000e+000</A>
#         <B>0.00000000e+000</B>
#         <C>0.00000000e+000</C>
#         <D>0.00000000e+000</D>
#         <M>0.0</M>
#         <CPcor>-9.57000000e-008</CPcor>
#       </Coefficients>
#       <Coefficients equation="1" >
#         <G>-9.92655810e+000</G>
#         <H>1.22836953e+000</H>
#         <I>7.27705124e-005</I>
#         <J>4.43760579e-005</J>
#         <CPcor>-9.57000000e-008</CPcor>
#         <CTcor>3.2500e-006</CTcor>
#         <!-- WBOTC not applicable unless ConductivityType = 1. -->
#         <WBOTC>0.00000000e+000</WBOTC>
#       </Coefficients>
#       <Slope>1.00000000</Slope>
#       <Offset>0.00000</Offset>
#     </ConductivitySensor>
#   </sensor>
#   <sensor Channel="6" >
#     <!-- A/D voltage 0, Oxygen, SBE 43 -->
#     <OxygenSensor SensorID="38" >
#       <SerialNumber>3671</SerialNumber>
#       <CalibrationDate>04-Apr-18</CalibrationDate>
#       <Use2007Equation>1</Use2007Equation>
#       <CalibrationCoefficients equation="0" >
#         <!-- Coefficients for Owens-Millard equation. -->
#         <Boc>0.0000</Boc>
#         <Soc>0.0000e+000</Soc>
#         <offset>0.0000</offset>
#         <Pcor>0.00e+000</Pcor>
#         <Tcor>0.0000</Tcor>
#         <Tau>0.0</Tau>
#       </CalibrationCoefficients>
#       <CalibrationCoefficients equation="1" >
#         <!-- Coefficients for Sea-Bird equation - SBE calibration in 2007 and later. -->
#         <Soc>4.9827e-001</Soc>
#         <offset>-0.5141</offset>
#         <A>-3.6016e-003</A>
#         <B> 1.6280e-004</B>
#         <C>-2.4237e-006</C>
#         <D0> 2.5826e+000</D0>
#         <D1> 1.92634e-004</D1>
#         <D2>-4.64803e-002</D2>
#         <E> 3.6000e-002</E>
#         <Tau20> 1.4900</Tau20>
#         <H1>-3.3000e-002</H1>
#         <H2> 5.0000e+003</H2>
#         <H3> 1.4500e+003</H3>
#       </CalibrationCoefficients>
#     </OxygenSensor>
#   </sensor>
#   <sensor Channel="7" >
#     <!-- A/D voltage 1, Free -->
#   </sensor>
#   <sensor Channel="8" >
#     <!-- A/D voltage 2, Oxygen, SBE 43, 2 -->
#     <OxygenSensor SensorID="38" >
#       <SerialNumber>3752</SerialNumber>
#       <CalibrationDate>02-Nov-18</CalibrationDate>
#       <Use2007Equation>1</Use2007Equation>
#       <CalibrationCoefficients equation="0" >
#         <!-- Coefficients for Owens-Millard equation. -->
#         <Boc>0.0000</Boc>
#         <Soc>0.0000e+000</Soc>
#         <offset>0.0000</offset>
#         <Pcor>0.00e+000</Pcor>
#         <Tcor>0.0000</Tcor>
#         <Tau>0.0</Tau>
#       </CalibrationCoefficients>
#       <CalibrationCoefficients equation="1" >
#         <!-- Coefficients for Sea-Bird equation - SBE calibration in 2007 and later. -->
#         <Soc>4.2712e-001</Soc>
#         <offset>-0.4717</offset>
#         <A>-3.9718e-003</A>
#         <B> 1.9806e-004</B>
#         <C>-2.8024e-006</C>
#         <D0> 2.5826e+000</D0>
#         <D1> 1.92634e-004</D1>
#         <D2>-4.64803e-002</D2>
#         <E> 3.6000e-002</E>
#         <Tau20> 1.3800</Tau20>
#         <H1>-3.3000e-002</H1>
#         <H2> 5.0000e+003</H2>
#         <H3> 1.4500e+003</H3>
#       </CalibrationCoefficients>
#     </OxygenSensor>
#   </sensor>
#   <sensor Channel="9" >
#     <!-- A/D voltage 3, Free -->
#   </sensor>
#   <sensor Channel="10" >
#     <!-- A/D voltage 4, User Polynomial -->
#     <UserPolynomialSensor SensorID="61" >
#       <SerialNumber>FLNTURT-5033</SerialNumber>
#       <CalibrationDate>3/8/18</CalibrationDate>
#       <SensorName>Turbidity</SensorName>
#       <A0>0.06300000</A0>
#       <A1>0.40000000</A1>
#       <A2>0.00000000</A2>
#       <A3>0.00000000</A3>
#     </UserPolynomialSensor>
#   </sensor>
#   <sensor Channel="11" >
#     <!-- A/D voltage 5, Fluorometer, WET Labs ECO-AFL/FL -->
#     <FluoroWetlabECO_AFL_FL_Sensor SensorID="20" >
#       <SerialNumber>FLNTURT-5033</SerialNumber>
#       <CalibrationDate>3/8/18</CalibrationDate>
#       <ScaleFactor>1.50000000e-001</ScaleFactor>
#       <!-- Dark output -->
#       <Vblank>0.0440</Vblank>
#     </FluoroWetlabECO_AFL_FL_Sensor>
#   </sensor>
#   <sensor Channel="12" >
#     <!-- A/D voltage 6, Altimeter -->
#     <AltimeterSensor SensorID="0" >
#       <SerialNumber>74132</SerialNumber>
#       <CalibrationDate></CalibrationDate>
#       <ScaleFactor>15.000</ScaleFactor>
#       <Offset>0.000</Offset>
#     </AltimeterSensor>
#   </sensor>
#   <sensor Channel="13" >
#     <!-- A/D voltage 7, Free -->
#   </sensor>
# </Sensors>
# datcnv_date = Sep 23 2021 14:31:15, 7.26.2.14 [datcnv_vars = 10]
# datcnv_in = C:\Users\CTD-User\Desktop\MAR440\day1\Station 4 210921.hex C:\Program Files (x86)\Sea-Bird\SeasaveV7\calib\0469_210817.xmlcon
# datcnv_skipover = 0
# datcnv_ox_hysteresis_correction = yes
# celltm_date = Sep 23 2021 15:15:35, 7.26.2.14
# celltm_in = C:\Users\CTD-User\Desktop\MAR440\day1\Station 4 210921.cnv
# celltm_alpha = 0.0400, 0.0400
# celltm_tau = 8.0000, 8.0000
# celltm_temp_sensor_use_for_cond = primary, secondary
# filter_date = Sep 23 2021 15:16:23, 7.26.2.14
# filter_in = C:\Users\CTD-User\Desktop\MAR440\day1\Station 4 210921_ctm.cnv
# filter_low_pass_tc_A = 0.500
# filter_low_pass_tc_B = 1.000
# filter_low_pass_A_vars = prDM t090C t190C c0S/m c1S/m sbeox0V sbeox1V upoly0
# filter_low_pass_B_vars =
# file_type = ascii
*END*
          1      0.603    11.7071    11.7034  -0.000120   0.026556     2.9372     2.8596     0.0035  0.0814552 0.0000e+00
          2      0.601    11.7067    11.7032  -0.000114   0.026572     2.9372     2.8596     0.0035  0.0814461 0.0000e+00
          3      0.599    11.7063    11.7031  -0.000111   0.026585     2.9372     2.8596     0.0033  0.0814363 0.0000e+00
          4      0.596    11.7058    11.7029  -0.000110   0.026595     2.9371     2.8596     0.0035  0.0814264 0.0000e+00
          5      0.594    11.7053    11.7027  -0.000108   0.026605     2.9371     2.8596     0.0035  0.0814182 0.0000e+00
          6      0.593    11.7047    11.7025  -0.000106   0.026615     2.9371     2.8596     0.0035  0.0814116 0.0000e+00
          7      0.591    11.7041    11.7022  -0.000102   0.026624     2.9371     2.8596     0.0035  0.0814056 0.0000e+00
          8      0.590    11.7035    11.7020  -0.000097   0.026633     2.9370     2.8596     0.0035  0.0814011 0.0000e+00
          9      0.588    11.7029    11.7017  -0.000092   0.026642     2.9370     2.8596     0.0033  0.0813980 0.0000e+00
         10      0.587    11.7023    11.7015  -0.000087   0.026652     2.9370     2.8596     0.0035  0.0813956 0.0000e+00
         11      0.586    11.7016    11.7012  -0.000082   0.026661     2.9370     2.8596     0.0033  0.0813937 0.0000e+00
         12      0.585    11.7009    11.7009  -0.000077   0.026670     2.9370     2.8596     0.0033  0.0813914 0.0000e+00
         13      0.584    11.7002    11.7006  -0.000072   0.026679     2.9370     2.8596     0.0033  0.0813881 0.0000e+00
         14      0.583    11.6996    11.7003  -0.000067   0.026688     2.9369     2.8596     0.0033  0.0813835 0.0000e+00
         15      0.582    11.6988    11.6999  -0.000063   0.026697     2.9369     2.8596     0.0033  0.0813777 0.0000e+00
         16      0.581    11.6981    11.6996  -0.000059   0.026708     2.9369     2.8596     0.0033  0.0813706 0.0000e+00
         17      0.581    11.6973    11.6992  -0.000055   0.026720     2.9369     2.8596     0.0035  0.0813623 0.0000e+00
         18      0.580    11.6966    11.6987  -0.000052   0.026731     2.9369     2.8596     0.0033  0.0813525 0.0000e+00
         19      0.579    11.6957    11.6983  -0.000047   0.026743     2.9369     2.8596     0.0033  0.0813414 0.0000e+00
         20      0.578    11.6949    11.6977  -0.000041   0.026755     2.9369     2.8596     0.0033  0.0813287 0.0000e+00
         21      0.578    11.6941    11.6972  -0.000034   0.026767     2.9369     2.8596     0.0033  0.0813144 0.0000e+00
         22      0.577    11.6932    11.6966  -0.000026   0.026780     2.9369     2.8596     0.0033  0.0812984 0.0000e+00
         23      0.577    11.6923    11.6959  -0.000018   0.026794     2.9369     2.8596     0.0033  0.0812806 0.0000e+00
         24      0.576    11.6914    11.6953  -0.000009   0.026810     2.9369     2.8596     0.0035  0.0812617 0.0000e+00
         25      0.576    11.6905    11.6945 3.9827e-07   0.026825     2.9369     2.8596     0.0035  0.0812433 0.0000e+00
         26      0.575    11.6895    11.6938   0.000009   0.026837     2.9369     2.8596     0.0035  0.0812260 0.0000e+00
         27      0.575    11.6886    11.6930   0.000018   0.026849     2.9369     2.8596     0.0035  0.0812099 0.0000e+00
         28      0.574    11.6876    11.6921   0.000028   0.026864     2.9369     2.8596     0.0035  0.0811947 0.0000e+00
         29      0.574    11.6865    11.6912   0.000037   0.026883     2.9369     2.8596     0.0035  0.0811813 0.0000e+00
         30      0.573    11.6855    11.6903   0.000046   0.026905     2.9369     2.8596     0.0035  0.0811703 0.0000e+00
         31      0.573    11.6844    11.6893   0.000057   0.026928     2.9368     2.8596     0.0033  0.0811616 0.0000e+00
         32      0.572    11.6833    11.6884   0.000068   0.026956     2.9368     2.8596     0.0035  0.0811554 0.0000e+00
         33      0.572    11.6822    11.6874   0.000079   0.026985     2.9368     2.8596     0.0035  0.0811514 0.0000e+00
         34      0.571    11.6811    11.6863   0.000094   0.027016     2.9368     2.8596     0.0035  0.0811497 0.0000e+00
         35      0.571    11.6800    11.6853   0.000109   0.027045     2.9368     2.8596     0.0033  0.0811493 0.0000e+00
         36      0.570    11.6789    11.6842   0.000127   0.027076     2.9368     2.8596     0.0033  0.0811495 0.0000e+00
         37      0.569    11.6778    11.6831   0.000148   0.027109     2.9368     2.8596     0.0033  0.0811503 0.0000e+00
         38      0.569    11.6768    11.6819   0.000170   0.027145     2.9368     2.8596     0.0033  0.0811516 0.0000e+00
         39      0.569    11.6757    11.6808   0.000194   0.027187     2.9368     2.8596     0.0035  0.0811535 0.0000e+00
         40      0.568    11.6746    11.6796   0.000222   0.027234     2.9368     2.8596     0.0033  0.0811560 0.0000e+00
         41      0.568    11.6736    11.6784   0.000251   0.027286     2.9368     2.8596     0.0033  0.0811599 0.0000e+00
         42      0.569    11.6725    11.6772   0.000284   0.027343     2.9368     2.8596     0.0035  0.0811669 0.0000e+00
         43      0.569    11.6715    11.6759   0.000320   0.027406     2.9368     2.8596     0.0033  0.0811772 0.0000e+00
         44      0.569    11.6704    11.6746   0.000359   0.027474     2.9368     2.8596     0.0033  0.0811891 0.0000e+00
         45      0.569    11.6694    11.6733   0.000401   0.027549     2.9368     2.8596     0.0035  0.0812018 0.0000e+00
         46      0.569    11.6683    11.6720   0.000448   0.027629     2.9368     2.8596     0.0033  0.0812154 0.0000e+00
         47      0.569    11.6673    11.6706   0.000499   0.027716     2.9368     2.8596     0.0035  0.0812300 0.0000e+00
         48      0.570    11.6664    11.6692   0.000554   0.027811     2.9368     2.8596     0.0035  0.0812466 0.0000e+00
         49      0.570    11.6654    11.6678   0.000614   0.027916     2.9368     2.8596     0.0033  0.0812661 0.0000e+00
         50      0.571    11.6645    11.6664   0.000679   0.028031     2.9368     2.8596     0.0035  0.0812878 0.0000e+00
         51      0.571    11.6635    11.6650   0.000751   0.028156     2.9368     2.8596     0.0035  0.0813110 0.0000e+00
         52      0.571    11.6626    11.6636   0.000831   0.028294     2.9368     2.8596     0.0033  0.0813350 0.0000e+00
         53      0.571    11.6618    11.6621   0.000918   0.028445     2.9368     2.8596     0.0035  0.0813583 0.0000e+00
         54      0.571    11.6609    11.6607   0.001013   0.028607     2.9368     2.8596     0.0033  0.0813802 0.0000e+00
         55      0.571    11.6601    11.6593   0.001116   0.028782     2.9368     2.8596     0.0033  0.0814009 0.0000e+00
         56      0.571    11.6593    11.6580   0.001228   0.028971     2.9368     2.8596     0.0033  0.0814205 0.0000e+00
         57      0.571    11.6585    11.6566   0.001350   0.029177     2.9368     2.8596     0.0035  0.0814399 0.0000e+00
         58      0.571    11.6577    11.6553   0.001483   0.029405     2.9368     2.8596     0.0033  0.0814603 0.0000e+00
         59      0.571    11.6569    11.6541   0.001628   0.029655     2.9368     2.8596     0.0033  0.0814808 0.0000e+00
         60      0.571    11.6561    11.6530   0.001786   0.029929     2.9368     2.8596     0.0033  0.0815007 0.0000e+00
         61      0.571    11.6553    11.6518   0.001958   0.030226     2.9368     2.8596     0.0033  0.0815203 0.0000e+00
         62      0.570    11.6546    11.6508   0.002143   0.030548     2.9368     2.8596     0.0035  0.0815404 0.0000e+00
         63      0.570    11.6539    11.6498   0.002345   0.030899     2.9368     2.8596     0.0033  0.0815621 0.0000e+00
         64      0.571    11.6532    11.6489   0.002564   0.031282     2.9368     2.8596     0.0033  0.0815846 0.0000e+00
         65      0.571    11.6526    11.6480   0.002803   0.031702     2.9368     2.8596     0.0035  0.0816073 0.0000e+00
         66      0.572    11.6521    11.6472   0.003064   0.032159     2.9368     2.8596     0.0033  0.0816304 0.0000e+00
         67      0.572    11.6516    11.6465   0.003348   0.032654     2.9368     2.8596     0.0035  0.0816548 0.0000e+00
         68      0.572    11.6511    11.6459   0.003656   0.033191     2.9368     2.8596     0.0033  0.0816816 0.0000e+00
         69      0.572    11.6507    11.6453   0.003990   0.033774     2.9368     2.8596     0.0035  0.0817109 0.0000e+00
         70      0.572    11.6505    11.6449   0.004354   0.034409     2.9368     2.8596     0.0035  0.0817430 0.0000e+00
         71      0.572    11.6502    11.6445   0.004750   0.035099     2.9368     2.8596     0.0033  0.0817772 0.0000e+00
         72      0.572    11.6501    11.6442   0.005182   0.035850     2.9368     2.8596     0.0035  0.0818129 0.0000e+00
         73      0.573    11.6500    11.6440   0.005652   0.036668     2.9368     2.8596     0.0035  0.0818504 0.0000e+00
